# cellulose diacetate "Courtaulds" 0.115 mm thick
# ageing under Q-Panel UVB-313 lamps at 25? cm distance
# exposure time in min: 100
# HP array spectrophotometer (no integrating sphere)
w.length transmittance
250  0.0131
251	0.01379
252	0.01306
253	0.00966
254	0.01401
255	0.01735
256	0.01123
257	0.01421
258	0.01992
259	0.01641
260	0.01987
261	0.01425
262	0.01407
263	0.02432
264	0.02894
265	0.02591
266	0.0316
267	0.03616
268	0.03406
269	0.03418
270	0.03669
271	0.04544
272	0.05546
273	0.04956
274	0.05803
275	0.05822
276	0.07298
277	0.0762
278	0.08197
279	0.09125
280	0.09125
281	0.09546
282	0.12235
283	0.11482
284	0.124
285	0.1411
286	0.16091
287	0.18329
288	0.21958
289	0.31293
290	0.62999
291	1.59921
292	4.00316
293	8.48688
294	15.15255
295	23.37705
296	31.85689
297	39.7216
298	46.40532
299	51.81422
300	55.86232
301	58.85431
302	61.06098
303	62.63579
304	63.78506
305	64.65004
306	65.29378
307	65.80881
308	66.2397
309	66.58416
310	66.91807
311	67.21084
312	67.51096
313	67.80543
314	68.10672
315	68.41986
316	68.75014
317	69.07352
318	69.43653
319	69.80099
320	70.14964
321	70.51366
322	70.88082
323	71.23987
324	71.61364
325	71.98146
326	72.35054
327	72.7124
328	73.04672
329	73.40707
330	73.76046
331	74.09634
332	74.44585
333	74.78584
334	75.1188
335	75.44032
336	75.77054
337	76.07714
338	76.39472
339	76.68852
340	76.97145
341	77.22184
342	77.45212
343	77.66655
344	77.88037
345	78.05312
346	78.21268
347	78.36483
348	78.49503
349	78.60818
350	78.7196
351	78.7931
352	78.90218
353	78.9755
354	79.04681
355	79.10672
356	79.17467
357	79.28654
358	79.36022
359	79.41165
360	79.41514
361	79.28811
362	79.19084
363	79.21798
364	79.40363
365	79.62328
366	79.85932
367	79.98797
368	80.00764
369	80.01309
370	80.02065
371	80.08006
372	80.09308
373	80.16751
374	80.18001
375	80.19497
376	80.19304
377	80.26545
378	80.28113
379	80.28783
380	80.31375
381	80.35045
382	80.39439
383	80.41222
384	80.44755
385	80.48624
386	80.51913
387	80.55768
388	80.54512
389	80.54141
390	80.61519
391	80.66779
392	80.64742
393	80.62581
394	80.68603
395	80.74842
396	80.78336
397	80.80661
398	80.77095
399	80.72821
400	80.83482
401	80.91261
402	80.92291
403	80.94246
404	80.96291
405	80.94726
406	80.94051
407	81.01057
408	81.0506
409	81.07143
410	81.09066
411	81.10223
412	81.12771
413	81.10045
414	81.12931
415	81.18901
416	81.16352
417	81.19971
418	81.21326
419	81.23449
420	81.25179
421	81.227
422	81.19383
423	81.22949
424	81.28392
425	81.30641
426	81.35606
427	81.37964
428	81.36678
429	81.37875
430	81.32694
431	81.31426
432	81.3825
433	81.49463
434	81.48121
435	81.49911
436	81.49893
437	81.48354
438	81.50233
439	81.51772
440	81.55335
441	81.58917
442	81.59903
443	81.57807
444	81.61283
445	81.63649
446	81.62824
447	81.63953
448	81.68311
449	81.68203
450	81.69997
451	81.72473
452	81.72043
453	81.74017
454	81.76153
455	81.80625
456	81.80625
457	81.81541
458	81.8341
459	81.84362
460	81.82224
461	81.82853
462	81.86268
463	81.8963
464	81.87238
465	81.87472
466	81.84542
467	81.86987
468	81.87544
469	81.88713
470	81.93497
471	81.94595
472	81.95999
473	81.97529
474	81.97025
475	81.98051
476	81.97745
477	82.00355
478	82.03579
479	82.03939
480	82.05345
481	82.06047
482	82.05633
483	82.07075
484	82.06372
485	82.1896
486	82.17895
487	81.99167
488	82.06732
489	82.10301
490	82.11654
491	82.14124
492	82.13529
493	82.14431
494	82.15513
495	82.1674
496	82.1757
497	82.17787
498	82.20909
499	82.22715
500	82.22986
501	82.22823
502	82.20711
503	82.23022
504	82.24809
505	82.24665
506	82.30356
507	82.26507
508	82.29199
509	82.30736
510	82.3079
511	82.30121
512	82.31386
513	82.33375
514	82.35436
515	82.36395
516	82.3672
517	82.37697
518	82.37625
519	82.39108
520	82.39217
521	82.41171
522	82.41678
523	82.42492
524	82.43922
525	82.46022
526	82.47073
527	82.48196
528	82.48666
529	82.48449
530	82.49083
531	82.49174
532	82.51746
533	82.52217
534	82.52725
535	82.51728
536	82.53395
537	82.55154
538	82.54048
539	82.5528
540	82.56531
541	82.57982
542	82.60666
543	82.60848
544	82.62118
545	82.61791
546	82.62662
547	82.62789
548	82.62245
549	82.64694
550	82.66872
551	82.69323
552	82.68579
553	82.664
554	82.68434
555	82.69342
556	82.71376
557	82.72629
558	82.75282
559	82.74791
560	82.73047
561	82.74936
562	82.7579
563	82.77044
564	82.78117
565	82.77935
566	82.80371
567	82.843
568	82.85773
569	82.89031
570	82.83772
571	82.8299
572	82.8108
573	82.86337
574	82.86956
575	82.78408
576	82.85646
577	82.97718
578	82.82317
579	82.83663
580	82.89886
581	82.91762
582	82.9218
583	82.93601
584	82.95459
585	82.93437
586	82.98684
587	82.9923
588	82.99139
589	83.03222
590	83.05465
591	83.02566
592	83.06414
593	83.09771
594	83.05903
595	83.08238
596	83.09406
597	83.08749
598	83.0791
599	83.08931
600	83.12928
601	83.10318
602	83.13202
603	83.22134
604	83.11851
605	83.14279
606	83.18352
607	83.14772
608	83.14407
609	83.21256
610	83.18826
611	83.1932
612	83.24436
613	83.22956
614	83.19356
615	83.24948
616	83.23248
617	83.24583
618	83.3005
619	83.23833
620	83.28989
621	83.29611
622	83.20288
623	83.31111
624	83.25625
625	83.26356
626	83.32282
627	83.50086
628	83.56047
629	83.43634
630	83.38341
631	83.39769
632	83.40666
633	83.38762
634	83.47886
635	83.40044
636	83.47812
637	83.50526
638	83.4587
639	83.55754
640	83.55038
641	83.49572
642	83.57056
643	83.53075
644	83.64492
645	83.55405
646	83.65925
647	83.59351
648	83.64051
649	83.64566
650	83.59828
651	83.74086
652	83.60764
653	83.74637
654	83.6014
655	84.04667
656	83.95831
657	83.37187
658	83.69637
659	83.69232
660	83.82365
661	83.67321
662	83.83635
663	83.71934
664	83.82898
665	83.73828
666	83.85273
667	83.75833
668	83.86912
669	83.746
670	83.93176
671	83.86378
672	83.83322
673	83.87778
674	83.88257
675	83.89952
676	83.90431
677	83.95794
678	83.88423
679	84.01161
680	83.89878
681	84.00607
682	83.962
683	83.99925
684	84.01235
685	84.00718
686	83.98431
687	84.0498
688	83.98007
689	84.06512
690	84.02065
691	84.01124
692	84.09208
693	83.9443
694	84.14195
695	83.94725
696	84.1353
697	84.00331
698	84.08894
699	84.05054
700	84.07177
701	84.07195
702	84.08063
703	84.07583
704	84.11424
705	84.09947
706	84.13696
707	84.12754
708	84.11424
709	84.18945
710	84.11868
711	84.24179
712	84.13733
713	84.25751
714	84.19981
715	84.23217
716	84.24697
717	84.23106
718	84.2651
719	84.2601
720	84.27565
721	84.29249
722	84.28897
723	84.27898
724	84.34711
725	84.22348
726	84.42123
727	84.1669
728	84.43495
729	84.20813
730	84.34822
731	84.29878
732	84.25862
733	84.38379
734	84.22126
735	84.37601
736	84.26861
737	84.37156
738	84.30933
739	84.41493
740	84.25455
741	84.49987
742	84.21663
743	84.53328
744	84.29082
745	84.50302
746	84.36471
747	84.50377
748	84.34081
749	84.59233
750	84.3223
751	84.6215
752	84.36212
753	84.54609
754	84.42142
755	84.60087
756	84.37842
757	84.65365
758	84.34193
759	84.62949
760	84.44682
761	84.60719
762	84.41345
763	84.6847
764	84.37712
765	84.69139
766	84.44626
767	84.61964
768	84.48299
769	84.66425
770	84.4509
771	84.67707
772	84.53198
773	84.58935
774	84.60496
775	84.58378
776	84.61592
777	84.56001
778	84.69586
779	84.4956
780	84.74292
781	84.51286
782	84.72599
783	84.52474
784	84.77773
785	84.54089
786	84.72748
787	84.65291
788	84.68228
789	84.70944
790	84.65142
791	84.79858
792	84.57431
793	84.87105
794	84.61369
795	84.82242
796	84.66759
797	84.81106
798	84.75148
799	84.71855
800	84.88484
