# cellulose diacetate "Courtaulds" 0.115 mm thick
# HP array spectrophotometer (no integrating sphere)
w.length transmittance
190  0.03516
191	0.00275
192	0.00197
193	0.00838
194	0.00952
195	0.01233
196	0.00892
197	0.00821
198	0.00548
199	0.00872
200	0.01016
201	0.00922
202	0.00686
203	0.01225
204	0.00909
205	0.00552
206	0.00501
207	0.00102
208	0.00599
209	0.00207
210	0.00225
211	0.0039
212	0.01012
213	0.0063
214	0.00464
215	0.00428
216	0.0025
217	0.00262
218	0.00191
219	0.0078
220	0.01084
221	0.00424
222	0.00202
223	0.01098
224	0.0058
225	0.00736
226	0.00295
227	0.00373
228	0.00392
229	0.00879
230	0.00474
231	0.00333
232	0.01193
233	0.00854
234	0.0076
235	0.01006
236	0.00691
237	0.00625
238	0.00994
239	0.00699
240	0.01026
241	0.01143
242	0.01134
243	0.01463
244	0.01437
245	0.01232
246	0.01521
247	0.02042
248	0.01338
249	0.01046
250	0.0134
251	0.0133
252	0.01672
253	0.01687
254	0.01739
255	0.01009
256	0.0087
257	0.01192
258	0.02411
259	0.0223
260	0.02032
261	0.01606
262	0.02017
263	0.02982
264	0.03062
265	0.03259
266	0.02769
267	0.03167
268	0.0359
269	0.04052
270	0.0494
271	0.05052
272	0.05862
273	0.05707
274	0.06338
275	0.06825
276	0.0576
277	0.07369
278	0.08486
279	0.09586
280	0.10306
281	0.10175
282	0.10921
283	0.11496
284	0.13125
285	0.13711
286	0.16032
287	0.16526
288	0.195
289	0.22996
290	0.30142
291	0.54128
292	1.37239
293	3.70978
294	8.54296
295	16.34398
296	26.12493
297	36.58475
298	46.45283
299	55.00259
300	61.71097
301	66.82981
302	70.66418
303	73.41368
304	75.39081
305	76.85542
306	77.88328
307	78.66931
308	79.27575
309	79.76346
310	80.15571
311	80.47776
312	80.76598
313	81.03067
314	81.27178
315	81.48837
316	81.69656
317	81.8936
318	82.07363
319	82.25586
320	82.40465
321	82.55262
322	82.7074
323	82.85864
324	83.00944
325	83.1448
326	83.29447
327	83.44404
328	83.57901
329	83.721
330	83.85789
331	83.98099
332	84.11701
333	84.23291
334	84.35674
335	84.47575
336	84.57988
337	84.69251
338	84.8105
339	84.91616
340	85.01281
341	85.10022
342	85.17556
343	85.27531
344	85.36487
345	85.45846
346	85.53938
347	85.63467
348	85.71406
349	85.78298
350	85.85779
351	85.91267
352	85.99157
353	86.06241
354	86.12461
355	86.17701
356	86.28873
357	86.39415
358	86.36456
359	86.3346
360	86.18609
361	86.0029
362	86.01725
363	86.1335
364	86.47918
365	86.84742
366	87.15922
367	87.2726
368	87.2498
369	87.18449
370	87.19176
371	87.24309
372	87.30097
373	87.36118
374	87.39054
375	87.43642
376	87.45812
377	87.5023
378	87.57573
379	87.56785
380	87.62921
381	87.67117
382	87.70891
383	87.75823
384	87.81587
385	87.8205
386	87.88976
387	87.89362
388	87.91832
389	87.99809
390	88.03868
391	88.10057
392	88.11798
393	88.14295
394	88.1867
395	88.2237
396	88.2797
397	88.35204
398	88.31538
399	88.36698
400	88.41784
401	88.47494
402	88.49884
403	88.54141
404	88.57758
405	88.55852
406	88.598
407	88.65989
408	88.69397
409	88.72728
410	88.75554
411	88.77308
412	88.81091
413	88.78634
414	88.84543
415	88.87353
416	88.91843
417	88.90945
418	88.95182
419	88.98679
420	88.98777
421	89.00086
422	88.9952
423	89.01337
424	89.07086
425	89.10509
426	89.14796
427	89.13954
428	89.15285
429	89.16832
430	89.1599
431	89.19476
432	89.22434
433	89.27216
434	89.34452
435	89.34079
436	89.31922
437	89.35669
438	89.36944
439	89.37886
440	89.40359
441	89.42068
442	89.47705
443	89.46605
444	89.47921
445	89.49906
446	89.514
447	89.55155
448	89.56099
449	89.57436
450	89.58833
451	89.596
452	89.6204
453	89.6452
454	89.64737
455	89.67808
456	89.71314
457	89.69364
458	89.71255
459	89.73797
460	89.73895
461	89.75846
462	89.79553
463	89.79158
464	89.80065
465	89.7975
466	89.82649
467	89.82807
468	89.84543
469	89.85727
470	89.88746
471	89.91589
472	89.92537
473	89.93702
474	89.94433
475	89.95677
476	89.97356
477	89.9868
478	90.00933
479	90.03859
480	90.04788
481	90.05678
482	90.05797
483	90.06153
484	90.08922
485	90.06291
486	90.10544
487	90.16442
488	90.12503
489	90.1377
490	90.1571
491	90.17591
492	90.19135
493	90.19215
494	90.21176
495	90.23692
496	90.23434
497	90.23632
498	90.2611
499	90.27854
500	90.30253
501	90.29638
502	90.29301
503	90.32276
504	90.33109
505	90.33863
506	90.38228
507	90.37633
508	90.40789
509	90.38903
510	90.41206
511	90.42119
512	90.44005
513	90.44363
514	90.46012
515	90.47323
516	90.46886
517	90.48356
518	90.50264
519	90.49965
520	90.51635
521	90.51734
522	90.56267
523	90.55512
524	90.5766
525	90.56546
526	90.57759
527	90.59669
528	90.60703
529	90.61061
530	90.62753
531	90.6341
532	90.65738
533	90.69044
534	90.68586
535	90.6761
536	90.67909
537	90.69223
538	90.70876
539	90.72908
540	90.74482
541	90.74024
542	90.74382
543	90.73546
544	90.77133
545	90.76555
546	90.7793
547	90.79445
548	90.80841
549	90.83294
550	90.83454
551	90.84132
552	90.86566
553	90.86646
554	90.86825
555	90.86626
556	90.86845
557	90.87963
558	90.8928
559	90.88222
560	90.88621
561	90.90597
562	90.92434
563	90.9529
564	90.93213
565	90.95789
566	90.97667
567	90.99705
568	91.01043
569	91.02363
570	91.01083
571	91.01903
572	90.99385
573	91.03322
574	91.02602
575	90.97467
576	91.02622
577	91.05461
578	90.99305
579	91.05841
580	91.07621
581	91.13843
582	91.11622
583	91.13082
584	91.17586
585	91.13643
586	91.15965
587	91.18767
588	91.14864
589	91.14183
590	91.16125
591	91.15144
592	91.15244
593	91.14744
594	91.18027
595	91.23074
596	91.22112
597	91.20249
598	91.2087
599	91.2085
600	91.20169
601	91.22112
602	91.2073
603	91.24636
604	91.23554
605	91.25899
606	91.24015
607	91.23014
608	91.24857
609	91.26179
610	91.24616
611	91.28404
612	91.28124
613	91.30409
614	91.28965
615	91.27642
616	91.29507
617	91.31973
618	91.32113
619	91.33637
620	91.32855
621	91.36667
622	91.32274
623	91.23174
624	91.22272
625	91.24055
626	91.36626
627	91.42467
628	91.49838
629	91.44977
630	91.38533
631	91.36787
632	91.42366
633	91.42306
634	91.39034
635	91.39697
636	91.38492
637	91.39295
638	91.43069
639	91.44173
640	91.45619
641	91.39757
642	91.46061
643	91.4578
644	91.42487
645	91.45137
646	91.49576
647	91.46242
648	91.44053
649	91.47748
650	91.50059
651	91.46222
652	91.46503
653	91.5251
654	91.44977
655	91.73335
656	91.57154
657	91.28865
658	91.46503
659	91.53093
660	91.55083
661	91.49255
662	91.51988
663	91.57999
664	91.51324
665	91.5237
666	91.60352
667	91.52852
668	91.54058
669	91.57979
670	91.5822
671	91.53374
672	91.63873
673	91.55244
674	91.56551
675	91.65583
676	91.54641
677	91.61197
678	91.67777
679	91.56269
680	91.6669
681	91.65925
682	91.58139
683	91.71261
684	91.63571
685	91.63269
686	91.73617
687	91.60513
688	91.69992
689	91.69751
690	91.6009
691	91.74625
692	91.61156
693	91.68804
694	91.71946
695	91.56953
696	91.77083
697	91.64134
698	91.67314
699	91.71845
700	91.60352
701	91.78554
702	91.60191
703	91.74685
704	91.70898
705	91.64014
706	91.80973
707	91.63309
708	91.81437
709	91.64537
710	91.80389
711	91.76297
712	91.70234
713	91.88072
714	91.6969
715	91.88335
716	91.70012
717	91.90413
718	91.71785
719	91.83917
720	91.83312
721	91.76176
722	91.89566
723	91.75894
724	91.89767
725	91.71603
726	91.96995
727	91.67173
728	91.97459
729	91.72228
730	91.89424
731	91.75471
732	91.9221
733	91.72248
734	91.94632
735	91.75592
736	91.85208
737	91.84683
738	91.8432
739	91.78897
740	91.90797
741	91.75572
742	91.90978
743	91.83736
744	91.86075
745	91.889
746	91.91705
747	91.80933
748	92.00267
749	91.77224
750	92.02692
751	91.82747
752	91.96227
753	91.8781
754	91.99297
755	91.80832
756	92.1183
757	91.74081
758	92.13166
759	91.8182
760	92.02853
761	91.95319
762	91.89606
763	92.04591
764	91.87407
765	92.02874
766	91.9005
767	91.98913
768	91.94047
769	92.00247
770	91.89505
771	92.06289
772	91.88375
773	92.05198
774	91.92674
775	91.94208
776	92.0445
777	91.84583
778	92.12761
779	91.82566
780	92.08817
781	91.9223
782	91.98429
783	92.04915
784	91.89142
785	92.127
786	91.90655
787	92.08655
788	91.99459
789	92.04066
790	92.0253
791	92.05865
792	92.00408
793	92.09606
794	92.03338
795	92.06674
796	92.12943
797	91.8888
798	92.31189
799	91.81739
800	92.3052
801	91.93623
802	92.11203
803	92.1357
804	91.98045
805	92.22234
806	92.00267
807	92.13651
808	92.0354
809	92.18731
810	91.9001
811	92.37151
812	91.79562
813	92.38611
814	91.91442
815	92.20047
816	92.0544
817	92.19865
818	91.97358
819	92.32689
820	91.96651
821	92.24401
822	92.13712
823	92.07604
824	92.20695
825	92.16464
826	92.08311
827	92.18124
828	92.19055
829	92.03662
830	92.31108
831	92.07098
832	92.19763
833	92.20087
834	92.2515
835	92.05339
836	92.35751
837	92.06209
838	92.21019
839	92.20938
840	92.20938
841	92.13125
842	92.29689
843	92.17779
844	92.12336
845	92.33865
846	92.11345
847	92.23327
848	92.1183
849	92.39565
850	91.92008
851	92.49187
852	91.98166
853	92.42994
854	91.89545
855	92.61564
856	91.78917
857	92.53392
858	91.93078
859	92.4876
860	91.87669
861	92.50995
862	92.02813
863	92.26021
864	92.2033
865	92.22821
866	92.26325
867	91.95662
868	92.56034
869	91.89424
870	92.55262
871	91.8779
872	92.66467
873	91.85289
874	92.49227
875	92.1442
876	92.32547
877	92.23226
878	92.10617
879	92.60751
880	91.91301
881	92.62235
882	91.94935
883	92.67749
884	91.97116
885	92.41716
886	92.31453
887	92.17658
888	92.50649
889	91.93037
890	92.75567
891	91.9122
892	92.5766
893	92.11264
894	92.38043
895	92.41066
896	91.95985
897	92.66447
898	91.92351
899	92.6726
900	91.99762
901	92.37617
902	92.41939
903	92.05461
904	92.63822
905	91.86257
906	92.70293
907	92.08332
908	92.29892
909	92.46324
910	91.98045
911	92.76524
912	91.89061
913	92.5514
914	92.24198
915	92.16828
916	92.66915
917	91.84522
918	92.70049
919	92.11122
920	92.36258
921	92.52193
922	91.94996
923	92.79275
924	92.06087
925	92.49837
926	92.45268
927	92.04794
928	92.83025
929	92.05178
930	92.56684
931	92.45207
932	92.1003
933	92.83861
934	92.08797
935	92.57599
936	92.47542
937	92.10859
938	92.87368
939	92.13772
940	92.564
941	92.57559
942	92.10556
943	92.87347
944	92.2193
945	92.46953
946	92.70822
947	92.06229
948	92.80722
949	92.35062
950	92.34575
951	92.80314
952	92.06451
953	92.66263
954	92.5581
955	92.18852
956	92.88122
957	92.21262
958	92.44293
959	92.74528
960	92.10536
961	92.74875
962	92.45593
963	92.19338
964	92.81822
965	92.1948
966	92.46445
967	92.7349
968	92.08534
969	92.65409
970	92.46587
971	92.17132
972	92.81904
973	92.24644
974	92.32892
975	92.73184
976	92.08837
977	92.55607
978	92.61808
979	92.0821
980	92.70924
981	92.44314
982	92.15857
983	92.78562
984	92.24887
985	92.34453
986	92.76891
987	92.16707
988	92.49024
989	92.67667
990	92.06572
991	92.64676
992	92.60751
993	92.18063
994	92.74773
995	92.49532
996	92.21869
997	92.76993
998	92.39017
999	92.25515
1000	92.80987
1001	92.33054
1002	92.38672
1003	92.8172
1004	92.29486
1005	92.46689
1006	92.77034
1007	92.28615
1008	92.52031
1009	92.73592
1010	92.27197
1011	92.61401
1012	92.79682
1013	92.22942
1014	92.64025
1015	92.72227
1016	92.305
1017	92.59897
1018	92.76606
1019	92.29284
1020	92.64025
1021	92.73816
1022	92.30317
1023	92.67586
1024	92.71372
1025	92.31959
1026	92.66752
1027	92.72187
1028	92.31088
1029	92.60283
1030	92.77686
1031	92.35122
1032	92.59531
1033	92.73245
1034	92.34595
1035	92.52904
1036	92.75384
1037	92.37191
1038	92.53311
1039	92.85981
1040	92.4267
1041	92.40457
1042	92.7958
1043	92.62052
1044	92.4476
1045	92.83698
1046	92.51117
1047	92.39544
1048	92.81904
1049	92.59144
1050	92.4273
1051	92.82393
1052	92.7573
1053	92.37881
1054	92.72472
1055	92.70456
1056	92.41492
1057	92.57579
1058	92.71678
1059	92.43522
1060	92.47907
1061	92.84207
1062	92.50812
1063	92.43522
1064	92.82169
1065	92.7958
1066	92.37779
1067	92.80375
1068	92.70802
1069	92.50223
1070	92.59673
1071	92.85838
1072	92.54103
1073	92.48273
1074	92.73164
1075	92.74386
1076	92.34413
1077	92.88306
1078	92.7013
1079	92.9949
1080	92.65287
1081	92.76647
1082	92.53555
1083	92.40011
1084	92.99082
1085	92.47156
1086	92.44517
1087	92.74915
1088	93.09583
1089	92.39788
1090	92.03985
1091	92.71739
1092	92.57355
1093	92.66935
1094	92.57884
1095	92.46324
1096	92.82719
1097	92.59836
1098	92.69703
1099	92.4342
1100	92.57985
