# cellulose diacetate "Courtaulds" 0.115 mm thick
# ageing under Q-Panel UVB-313 lamps at 25? cm distance
# exposure time in min: 0
# HP array spectrophotometer (no integrating sphere)
w.length transmittance
250  0.01578
251	0.01824
252	0.01521
253	0.01066
254	0.01199
255	0.02339
256	0.01326
257	0.01626
258	0.01967
259	0.021
260	0.021
261	0.01981
262	0.02172
263	0.02947
264	0.0287
265	0.02908
266	0.03579
267	0.03737
268	0.03214
269	0.03785
270	0.03905
271	0.04847
272	0.06139
273	0.05704
274	0.05769
275	0.06543
276	0.07916
277	0.08188
278	0.08617
279	0.10297
280	0.09675
281	0.11318
282	0.13145
283	0.12584
284	0.14088
285	0.15299
286	0.17652
287	0.20084
288	0.2423
289	0.34865
290	0.70015
291	1.79705
292	4.52306
293	9.68389
294	17.38155
295	26.9143
296	36.80295
297	45.97355
298	53.77794
299	60.07532
300	64.76613
301	68.22437
302	70.74274
303	72.51102
304	73.77439
305	74.68835
306	75.34231
307	75.83146
308	76.21258
309	76.50921
310	76.74613
311	76.94779
312	77.11203
313	77.28189
314	77.42423
315	77.56207
316	77.69282
317	77.80891
318	77.91612
319	78.03272
320	78.13114
321	78.23621
322	78.32543
323	78.42301
324	78.52158
325	78.6182
326	78.70197
327	78.79691
328	78.86823
329	78.93788
330	79.02113
331	79.08206
332	79.1665
333	79.22911
334	79.30396
335	79.36319
336	79.42804
337	79.48876
338	79.54778
339	79.61104
340	79.65091
341	79.7006
342	79.74034
343	79.79534
344	79.83828
345	79.87721
346	79.91792
347	79.95337
348	79.99096
349	80.02574
350	80.06283
351	80.10064
352	80.13231
353	80.16522
354	80.18406
355	80.20889
356	80.22738
357	80.2258
358	80.20307
359	80.19497
360	80.20466
361	80.23619
362	80.34833
363	80.43607
364	80.55945
365	80.61466
366	80.65432
367	80.68001
368	80.70783
369	80.75871
370	80.80501
371	80.84991
372	80.87104
373	80.92682
374	80.92523
375	80.92291
376	80.94762
377	80.99705
378	80.99669
379	80.98638
380	81.03263
381	81.07998
382	81.09458
383	81.12521
384	81.14125
385	81.18188
386	81.2204
387	81.21184
388	81.19097
389	81.23306
390	81.30302
391	81.32748
392	81.28088
393	81.28766
394	81.34695
395	81.42093
396	81.44204
397	81.43327
398	81.39501
399	81.40002
400	81.49624
401	81.56642
402	81.58219
403	81.58738
404	81.58577
405	81.56105
406	81.5915
407	81.66715
408	81.68472
409	81.70051
410	81.73084
411	81.74107
412	81.75992
413	81.73496
414	81.76602
415	81.80966
416	81.81847
417	81.83877
418	81.85243
419	81.86124
420	81.84973
421	81.79475
422	81.79996
423	81.86681
424	81.90763
425	81.93803
426	81.99275
427	81.98645
428	81.98897
429	81.95765
430	81.88587
431	81.92688
432	82.0167
433	82.05633
434	82.12086
435	82.10085
436	82.12267
437	82.10427
438	82.10716
439	82.13349
440	82.15513
441	82.17534
442	82.21559
443	82.19104
444	82.21469
445	82.25442
446	82.24322
447	82.26796
448	82.30211
449	82.30157
450	82.32417
451	82.35581
452	82.35111
453	82.36576
454	82.37968
455	82.43126
456	82.4499
457	82.42908
458	82.46765
459	82.45914
460	82.45642
461	82.48685
462	82.49192
463	82.51094
464	82.52018
465	82.50822
466	82.47091
467	82.50623
468	82.49826
469	82.53704
470	82.5606
471	82.58127
472	82.59777
473	82.5878
474	82.58871
475	82.60449
476	82.61283
477	82.62716
478	82.69741
479	82.67689
480	82.69124
481	82.69305
482	82.71121
483	82.71993
484	82.72102
485	82.71031
486	82.63914
487	82.73719
488	82.80299
489	82.78662
490	82.77772
491	82.80971
492	82.83518
493	82.83699
494	82.853
495	82.86392
496	82.85573
497	82.85755
498	82.87393
499	82.91489
500	82.93127
501	82.92563
502	82.92763
503	82.94493
504	82.95951
505	82.95295
506	82.99923
507	82.97955
508	82.99522
509	83.00998
510	83.03295
511	83.02311
512	83.04134
513	83.05174
514	83.08348
515	83.10592
516	83.09552
517	83.10501
518	83.12107
519	83.13531
520	83.16178
521	83.15758
522	83.15886
523	83.1784
524	83.19265
525	83.20891
526	83.22298
527	83.23705
528	83.23047
529	83.22755
530	83.23888
531	83.24674
532	83.26338
533	83.26246
534	83.26923
535	83.2791
536	83.29209
537	83.31587
538	83.30764
539	83.3177
540	83.33014
541	83.35375
542	83.38194
543	83.38194
544	83.39879
545	83.39201
546	83.39879
547	83.39604
548	83.40447
549	83.43084
550	83.45265
551	83.47061
552	83.47666
553	83.47281
554	83.47409
555	83.47043
556	83.48014
557	83.50563
558	83.52892
559	83.54157
560	83.52397
561	83.51993
562	83.55497
563	83.56579
564	83.5746
565	83.60636
566	83.59736
567	83.59938
568	83.61719
569	83.64933
570	83.67744
571	83.63004
572	83.61187
573	83.63133
574	83.66733
575	83.626
576	83.65447
577	83.67781
578	83.65962
579	83.65668
580	83.7085
581	83.60452
582	83.7506
583	83.83745
584	83.76311
585	83.69453
586	83.76973
587	83.82549
588	83.84574
589	83.80377
590	83.83524
591	83.88202
592	83.88257
593	83.84242
594	83.87483
595	83.9408
596	83.89749
597	83.8566
598	83.91407
599	83.93656
600	83.89104
601	83.91002
602	83.9939
603	83.98542
604	83.92384
605	83.98947
606	83.95315
607	83.92366
608	83.99722
609	84.01991
610	83.98136
611	84.03892
612	84.08396
613	84.00497
614	84.03024
615	84.07306
616	84.03984
617	84.07085
618	84.12403
619	84.04501
620	84.13512
621	84.12329
622	84.09854
623	84.19518
624	84.12403
625	84.16782
626	84.21608
627	84.05165
628	84.02803
629	84.16228
630	84.21441
631	84.14232
632	84.23291
633	84.30637
634	84.26047
635	84.26806
636	84.30693
637	84.29934
638	84.28749
639	84.32767
640	84.38342
641	84.28564
642	84.35693
643	84.35674
644	84.40214
645	84.39195
646	84.41956
647	84.4051
648	84.4331
649	84.42642
650	84.44867
651	84.48391
652	84.43922
653	84.51843
654	84.45164
655	84.57097
656	84.95514
657	84.63878
658	84.50859
659	84.52474
660	84.59586
661	84.48967
662	84.60979
663	84.524
664	84.61388
665	84.53866
666	84.63822
667	84.56688
668	84.63525
669	84.58248
670	84.67429
671	84.69009
672	84.59493
673	84.72395
674	84.64343
675	84.76973
676	84.61982
677	84.86993
678	84.6031
679	84.89155
680	84.67763
681	84.86546
682	84.73269
683	84.90572
684	84.69642
685	84.98742
686	84.62856
687	85.01953
688	84.68991
689	84.94731
690	84.76954
691	84.89901
692	84.76563
693	84.94806
694	84.694
695	85.01766
696	84.65941
697	84.97791
698	84.75632
699	84.83229
700	84.93071
701	84.71427
702	85.03839
703	84.69251
704	85.02774
705	84.78667
706	84.97156
707	84.87795
708	84.94339
709	84.94731
710	84.98854
711	84.98313
712	85.04586
713	84.99284
714	85.06435
715	85.05408
716	85.05557
717	85.11069
718	85.04661
719	85.12807
720	85.09144
721	85.14209
722	85.10695
723	85.15574
724	85.05856
725	85.24255
726	84.94582
727	85.33994
728	84.8951
729	85.28
730	85.03036
731	85.05109
732	85.28037
733	84.78741
734	85.51665
735	84.72674
736	85.44983
737	84.88484
738	85.24667
739	85.05239
740	85.21261
741	85.05109
742	85.35681
743	84.93836
744	85.42731
745	85.07743
746	85.23974
747	85.35381
748	85.06454
749	85.46728
750	85.19053
751	85.33788
752	85.30978
753	85.35419
754	85.17089
755	85.62621
756	85.0046
757	85.60064
758	85.17631
759	85.44345
760	85.28337
761	85.50896
762	85.11368
763	85.66551
764	85.11592
765	85.47366
766	85.36618
767	85.38155
768	85.30547
769	85.48999
770	85.26127
771	85.38493
772	85.5283
773	85.20026
774	85.56662
775	85.27119
776	85.536
777	85.1606
778	85.75115
779	84.96895
780	85.79861
781	85.09929
782	85.7086
783	85.11312
784	85.83178
785	85.09499
786	85.67586
787	85.40293
788	85.48924
789	85.50464
790	85.46128
791	85.69242
792	85.19333
793	85.95362
794	85.16004
795	85.86816
796	85.27794
797	85.9023
798	85.31221
799	85.6768
800	85.68922
