# cellulose diacetate "Courtaulds" 0.115 mm thick
# ageing under Q-Panel UVB-313 lamps at 25? cm distance
# exposure time in min: 0, 20, 30, 60, 100, 180, 300
# HP array spectrophotometer (no integrating sphere)
w.length transmittance
250  0.01578	0.01493	0.00768	0.01039	0.0131	0.01218	0.01402
251	0.01824	0.02224	0.01674	0.01909	0.01379	0.01735	0.01828
252	0.01521	0.01675	0.01406	0.01108	0.01306	0.0122	0.01668
253	0.01066	0.01756	0.00769	0.01694	0.00966	0.01184	0.01366
254	0.01199	0.01319	0.01009	0.01199	0.01401	0.01225	0.01181
255	0.02339	0.02049	0.01781	0.02786	0.01735	0.01742	0.01756
256	0.01326	0.01173	0.01193	0.01893	0.01123	0.01598	0.01318
257	0.01626	0.01814	0.01773	0.02105	0.01421	0.01483	0.01507
258	0.01967	0.02061	0.02189	0.02046	0.01992	0.01204	0.01378
259	0.021	0.01527	0.01737	0.01394	0.01641	0.0161	0.01226
260	0.021	0.02673	0.02293	0.02153	0.01987	0.02054	0.01816
261	0.01981	0.01676	0.01477	0.01921	0.01425	0.01275	0.01536
262	0.02172	0.0239	0.01491	0.0199	0.01407	0.01381	0.01654
263	0.02947	0.02712	0.02912	0.02346	0.02432	0.0205	0.01791
264	0.0287	0.02705	0.0246	0.02631	0.02894	0.02703	0.02443
265	0.02908	0.03104	0.02724	0.02892	0.02591	0.02538	0.02467
266	0.03579	0.03642	0.03324	0.03506	0.0316	0.03255	0.03226
267	0.03737	0.04036	0.03509	0.0339	0.03616	0.03312	0.0313
268	0.03214	0.0376	0.03592	0.03377	0.03406	0.03459	0.02954
269	0.03785	0.0396	0.03932	0.03693	0.03418	0.0375	0.03364
270	0.03905	0.04332	0.04212	0.03839	0.03669	0.03837	0.03218
271	0.04847	0.04866	0.05125	0.04682	0.04544	0.0432	0.0402
272	0.06139	0.05945	0.06238	0.05325	0.05546	0.0573	0.05535
273	0.05704	0.05965	0.06423	0.05929	0.04956	0.04884	0.04964
274	0.05769	0.06196	0.0683	0.04979	0.05803	0.05283	0.05182
275	0.06543	0.06028	0.05831	0.05992	0.05822	0.05764	0.05019
276	0.07916	0.08007	0.07817	0.07682	0.07298	0.07757	0.06933
277	0.08188	0.08452	0.08485	0.07727	0.0762	0.08058	0.07226
278	0.08617	0.08668	0.09102	0.08179	0.08197	0.07946	0.06991
279	0.10297	0.09746	0.08882	0.08897	0.09125	0.08546	0.08352
280	0.09675	0.0976	0.09874	0.09561	0.09125	0.09005	0.08153
281	0.11318	0.10753	0.1025	0.09839	0.09546	0.09361	0.09619
282	0.13145	0.13611	0.12535	0.12637	0.12235	0.11961	0.112
283	0.12584	0.12474	0.11784	0.11185	0.11482	0.10491	0.10602
284	0.14088	0.13683	0.1322	0.12714	0.124	0.11919	0.11776
285	0.15299	0.14932	0.15339	0.14206	0.1411	0.13501	0.12468
286	0.17652	0.17734	0.17515	0.16657	0.16091	0.15571	0.14807
287	0.20084	0.19544	0.19448	0.1928	0.18329	0.1735	0.16891
288	0.2423	0.23932	0.22812	0.23111	0.21958	0.20724	0.20326
289	0.34865	0.33803	0.34465	0.3303	0.31293	0.29867	0.28129
290	0.70015	0.66856	0.70269	0.67651	0.62999	0.60512	0.55864
291	1.79705	1.72694	1.80235	1.73934	1.59921	1.55404	1.41558
292	4.52306	4.36137	4.47667	4.33287	4.00316	3.8482	3.54816
293	9.68389	9.3418	9.46285	9.12179	8.48688	8.12536	7.54314
294	17.38155	16.81443	16.8038	16.20361	15.15255	14.42212	13.5108
295	26.9143	26.08497	25.83047	24.86896	23.37705	22.16608	20.90318
296	36.80295	35.686	35.08143	33.77556	31.85689	30.1306	28.56024
297	45.97355	44.62165	43.61559	42.00367	39.7216	37.50623	35.69713
298	53.77794	52.22464	50.86298	48.9873	46.40532	43.78093	41.78967
299	60.07532	58.36088	56.69326	54.61733	51.81422	48.85892	46.74056
300	64.76613	62.93442	61.03711	58.81736	55.86232	52.66804	50.47977
301	68.22437	66.31567	64.23034	61.92504	58.85431	55.51441	53.26669
302	70.74274	68.80058	66.57027	64.20439	61.06098	57.63128	55.3558
303	72.51102	70.52574	68.22272	65.82471	62.63579	59.15283	56.87382
304	73.77439	71.77564	69.41031	66.99747	63.78506	60.28279	57.99322
305	74.68835	72.67856	70.27484	67.85667	64.65004	61.14323	58.87473
306	75.34231	73.34117	70.90868	68.49608	65.29378	61.79721	59.55178
307	75.83146	73.83857	71.38253	69.00954	65.80881	62.3357	60.09946
308	76.21258	74.22858	71.75515	69.41473	66.2397	62.78534	60.58084
309	76.50921	74.53467	72.07146	69.74185	66.58416	63.18727	60.99986
310	76.74613	74.80374	72.34942	70.03328	66.91807	63.56386	61.40385
311	76.94779	75.01396	72.57585	70.29305	67.21084	63.90353	61.78907
312	77.11203	75.21156	72.78253	70.5293	67.51096	64.25178	62.15159
313	77.28189	75.41034	72.98227	70.77288	67.80543	64.61016	62.55208
314	77.42423	75.59786	73.18496	71.01137	68.10672	64.96127	62.951
315	77.56207	75.76555	73.37774	71.24926	68.41986	65.35058	63.37598
316	77.69282	75.92744	73.58299	71.48716	68.75014	65.73356	63.80677
317	77.80891	76.1104	73.78395	71.72664	69.07352	66.13709	64.25898
318	77.91612	76.27486	73.98805	71.96818	69.43653	66.56063	64.71879
319	78.03272	76.44304	74.19517	72.23164	69.80099	66.99688	65.22299
320	78.13114	76.60403	74.40172	72.48189	70.14964	67.4394	65.71523
321	78.23621	76.7817	74.61409	72.72805	70.51366	67.89259	66.20829
322	78.32543	76.93799	74.82	72.97778	70.88082	68.33263	66.70372
323	78.42301	77.09442	75.01495	73.23239	71.23987	68.77596	67.19785
324	78.52158	77.25457	75.21585	73.48417	71.61364	69.23586	67.7105
325	78.6182	77.43069	75.4226	73.74491	71.98146	69.6849	68.22332
326	78.70197	77.58183	75.62891	73.98513	72.35054	70.14117	68.73384
327	78.79691	77.72831	75.81714	74.2263	72.7124	70.58214	69.2129
328	78.86823	77.85934	75.9975	74.44699	73.04672	70.99827	69.68934
329	78.93788	78.00651	76.18815	74.68605	73.40707	71.43412	70.17399
330	79.02113	78.15053	76.35614	74.91881	73.76046	71.85875	70.65673
331	79.08206	78.28038	76.54433	75.1287	74.09634	72.28559	71.12467
332	79.1665	78.41733	76.71749	75.37839	74.44585	72.70362	71.59665
333	79.22911	78.55228	76.90741	75.59836	74.78584	73.13211	72.0732
334	79.30396	78.68918	77.08765	75.82147	75.1188	73.54519	72.54016
335	79.36319	78.80833	77.2315	76.02721	75.44032	73.9442	72.98163
336	79.42804	78.94499	77.40944	76.24187	75.77054	74.34195	73.4319
337	79.48876	79.05428	77.57485	76.44439	76.07714	74.73281	73.87863
338	79.54778	79.17276	77.72746	76.65417	76.39472	75.10692	74.30098
339	79.61104	79.28254	77.88687	76.84698	76.68852	75.48191	74.70853
340	79.65091	79.3916	78.01388	77.02538	76.97145	75.8278	75.10379
341	79.7006	79.48335	78.1435	77.19573	77.22184	76.13714	75.44248
342	79.74034	79.57032	78.25271	77.33757	77.45212	76.42525	75.76089
343	79.79534	79.66368	78.37154	77.48546	77.66655	76.70384	76.0733
344	79.83828	79.75295	78.48021	77.6275	77.88037	76.9635	76.35966
345	79.87721	79.81199	78.56694	77.74692	78.05312	77.18471	76.61597
346	79.91792	79.88265	78.6567	77.84839	78.21268	77.39398	76.86149
347	79.95337	79.95618	78.73429	77.96027	78.36483	77.57536	77.06396
348	79.99096	80.01555	78.81785	78.06152	78.49503	77.75084	77.25406
349	80.02574	80.06037	78.88105	78.13423	78.60818	77.89713	77.41131
350	80.06283	80.12228	78.94464	78.22625	78.7196	78.03512	77.57621
351	80.10064	80.17596	78.9866	78.2974	78.7931	78.16787	77.70254
352	80.13231	80.23232	79.04716	78.3755	78.90218	78.28983	77.84515
353	80.16522	80.26386	79.09092	78.41664	78.9755	78.37739	77.95771
354	80.18406	80.29912	79.1307	78.48089	79.04681	78.44661	78.06649
355	80.20889	80.33263	79.17658	78.52899	79.10672	78.54106	78.15946
356	80.22738	80.40322	79.22145	78.5999	79.17467	78.64928	78.25597
357	80.2258	80.41134	79.2808	78.61612	79.28654	78.77148	78.30754
358	80.20307	80.40657	79.30378	78.51468	79.36022	78.83152	78.32096
359	80.19497	80.37674	79.24808	78.5647	79.41165	78.83221	78.33592
360	80.20466	80.40181	79.05619	78.71787	79.41514	78.79829	78.29224
361	80.23619	80.49932	78.8407	78.81577	79.28811	78.76853	78.23862
362	80.34833	80.65344	78.74934	78.91362	79.19084	78.81387	78.31992
363	80.43607	80.74009	78.87169	78.85316	79.21798	78.97394	78.50003
364	80.55945	80.78088	79.25747	78.85749	79.40363	79.19084	78.81837
365	80.61466	80.78709	79.66998	78.98504	79.62328	79.37783	79.08536
366	80.65432	80.82009	79.98744	79.19484	79.85932	79.51321	79.27105
367	80.68001	80.8698	80.0776	79.31284	79.98797	79.56805	79.34123
368	80.70783	80.93322	80.008	79.35047	80.00764	79.58622	79.36162
369	80.75871	81.01092	79.90774	79.38898	80.01309	79.65074	79.37033
370	80.80501	81.05933	79.88142	79.42002	80.02065	79.72633	79.38898
371	80.84991	81.11239	79.92511	79.47114	80.08006	79.78693	79.45613
372	80.87104	81.13002	79.94337	79.50098	80.09308	79.84179	79.50203
373	80.92682	81.17778	79.99148	79.55355	80.16751	79.90511	79.5691
374	80.92523	81.1949	80.01344	79.57486	80.18001	79.92634	79.59793
375	80.92291	81.21005	80.00729	79.58832	80.19497	79.95021	79.6079
376	80.94762	81.23538	80.03506	79.60965	80.19304	79.98375	79.64602
377	80.99705	81.28445	80.07989	79.6803	80.26545	80.06459	79.72266
378	80.99669	81.30302	80.10169	79.71565	80.28113	80.07989	79.74227
379	80.98638	81.3007	80.10926	79.70883	80.28783	80.10064	79.75855
380	81.03263	81.35927	80.1353	79.74857	80.31375	80.13758	79.82338
381	81.07998	81.37911	80.16064	79.79201	80.35045	80.18634	79.87265
382	81.09458	81.41182	80.20237	79.82899	80.39439	80.24694	79.92546
383	81.12521	81.4415	80.22809	79.8609	80.41222	80.27673	79.95039
384	81.14125	81.44937	80.26368	79.90405	80.44755	80.31111	79.97954
385	81.18188	81.49821	80.29277	79.93406	80.48624	80.35609	80.0282
386	81.2204	81.53491	80.31852	79.97392	80.51913	80.41328	80.08024
387	81.21184	81.55192	80.33986	80.00009	80.55768	80.43271	80.09906
388	81.19097	81.55944	80.32822	79.98446	80.54512	80.40587	80.0827
389	81.23306	81.5881	80.35309	80.03383	80.54141	80.4661	80.12562
390	81.30302	81.64527	80.426	80.10556	80.61519	80.54282	80.21118
391	81.32748	81.66661	80.43165	80.13987	80.66779	80.57749	80.248
392	81.28088	81.65746	80.423	80.10363	80.64742	80.5545	80.22668
393	81.28766	81.69782	80.42282	80.10961	80.62581	80.55573	80.21769
394	81.34695	81.71504	80.4866	80.17156	80.68603	80.62174	80.30405
395	81.42093	81.78452	80.54158	80.24024	80.74842	80.69968	80.36492
396	81.44204	81.80876	80.5644	80.29965	80.78336	80.7385	80.39951
397	81.43327	81.82116	80.6051	80.3104	80.80661	80.75658	80.3981
398	81.39501	81.80697	80.59572	80.25716	80.77095	80.73158	80.38557
399	81.40002	81.83661	80.55556	80.28395	80.72821	80.7236	80.39722
400	81.49624	81.88947	80.63201	80.39828	80.83482	80.83624	80.50622
401	81.56642	81.93173	80.69188	80.43677	80.91261	80.91048	80.56653
402	81.58219	81.94757	80.71084	80.45956	80.92291	80.92825	80.58687
403	81.58738	81.97853	80.73477	80.47476	80.94246	80.96095	80.61236
404	81.58577	81.98411	80.72591	80.49102	80.96291	80.96913	80.62369
405	81.56105	81.97295	80.72555	80.47599	80.94726	80.95473	80.59873
406	81.5915	82.00445	80.74984	80.50357	80.94051	80.98833	80.63626
407	81.66715	82.04588	80.80341	80.59201	81.01057	81.05078	80.71244
408	81.68472	82.06912	80.82897	80.61006	81.0506	81.07962	80.74576
409	81.70051	82.08895	80.84547	80.62741	81.07143	81.10972	80.75587
410	81.73084	82.1306	80.88543	80.6607	81.09066	81.13911	80.78815
411	81.74107	82.15153	80.89928	80.68497	81.10223	81.15301	80.81033
412	81.75992	82.14287	80.91314	80.68851	81.12771	81.17956	80.84476
413	81.73496	82.15297	80.9055	80.68621	81.10045	81.18028	80.81725
414	81.76602	82.184	80.93376	80.72183	81.12931	81.19222	80.84334
415	81.80966	82.23184	80.9846	80.77449	81.18901	81.2468	80.90941
416	81.81847	82.21667	80.96913	80.78496	81.16352	81.26696	80.90994
417	81.83877	82.24575	80.99154	80.8043	81.19971	81.2982	80.94051
418	81.85243	82.24069	80.99189	80.81033	81.21326	81.29445	80.94211
419	81.86124	82.26634	81.02694	80.85009	81.23449	81.33623	80.96255
420	81.84973	82.28332	81.02961	80.8421	81.25179	81.3148	80.96184
421	81.79475	82.25568	81.0015	80.82329	81.227	81.28981	80.91403
422	81.79996	82.26381	80.98033	80.80075	81.19383	81.27535	80.91492
423	81.86681	82.31296	81.02409	80.86092	81.22949	81.32909	80.97624
424	81.90763	82.33212	81.0814	80.92096	81.28392	81.40163	81.04366
425	81.93803	82.35906	81.11862	80.95046	81.30641	81.42827	81.06929
426	81.99275	82.39361	81.15622	80.99082	81.35606	81.46457	81.10117
427	81.98645	82.39271	81.1555	80.99616	81.37964	81.46726	81.11631
428	81.98897	82.4099	81.18937	81.00078	81.36678	81.48658	81.13305
429	81.95765	82.39977	81.18509	80.9999	81.37875	81.4626	81.10597
430	81.88587	82.39217	81.11114	80.94815	81.32694	81.42308	81.04188
431	81.92688	82.41605	81.12878	80.99029	81.31426	81.43756	81.07499
432	82.0167	82.44845	81.18473	81.05719	81.3825	81.51056	81.16905
433	82.05633	82.48014	81.25126	81.12486	81.49463	81.57341	81.22361
434	82.12086	82.52942	81.30802	81.13733	81.48121	81.61157	81.24269
435	82.10085	82.54483	81.32927	81.18705	81.49911	81.60691	81.24947
436	82.12267	82.53504	81.31605	81.15675	81.49893	81.63452	81.25804
437	82.10427	82.547	81.30712	81.16245	81.48354	81.63147	81.25233
438	82.10716	82.55154	81.3123	81.17546	81.50233	81.63649	81.27089
439	82.13349	82.55734	81.32587	81.1908	81.51772	81.66105	81.3007
440	82.15513	82.58145	81.34766	81.22093	81.55335	81.6736	81.32284
441	82.17534	82.59669	81.38769	81.2352	81.58917	81.7163	81.34784
442	82.21559	82.62789	81.40771	81.27588	81.59903	81.74107	81.37696
443	82.19104	82.62499	81.40502	81.27803	81.57807	81.72222	81.36839
444	82.21469	82.6444	81.4322	81.30659	81.61283	81.76027	81.40055
445	82.25442	82.6778	81.45974	81.32087	81.63649	81.78739	81.43595
446	82.24322	82.67145	81.44096	81.31355	81.62824	81.76871	81.41253
447	82.26796	82.69741	81.47781	81.35177	81.63953	81.81613	81.44043
448	82.30211	82.72792	81.50805	81.38715	81.68311	81.83733	81.49481
449	82.30157	82.71539	81.49105	81.37929	81.68203	81.84219	81.47888
450	82.32417	82.74646	81.51217	81.41682	81.69997	81.87724	81.49982
451	82.35581	82.75336	81.54905	81.4254	81.72473	81.88839	81.53634
452	82.35111	82.75918	81.54243	81.44025	81.72043	81.90061	81.53867
453	82.36576	82.77481	81.54744	81.45527	81.74017	81.91806	81.57019
454	82.37968	82.77499	81.58416	81.48014	81.76153	81.92724	81.58828
455	82.43126	82.80626	81.62501	81.51235	81.80625	81.97727	81.60405
456	82.4499	82.82135	81.62609	81.51432	81.80625	81.99563	81.62896
457	82.42908	82.8239	81.62143	81.52291	81.81541	81.97925	81.6286
458	82.46765	82.83954	81.65854	81.55675	81.8341	82.00139	81.64796
459	82.45914	82.85701	81.66571	81.55836	81.84362	82.00607	81.64115
460	82.45642	82.84809	81.6442	81.54243	81.82224	81.99005	81.63918
461	82.48685	82.87539	81.64563	81.5847	81.82853	82.0239	81.66446
462	82.49192	82.88012	81.68831	81.61462	81.86268	82.04066	81.6788
463	82.51094	82.87757	81.69746	81.6243	81.8963	82.06047	81.7032
464	82.52018	82.89978	81.69262	81.62985	81.87238	82.05849	81.68347
465	82.50822	82.90833	81.65764	81.61874	81.87472	82.0484	81.68024
466	82.47091	82.8965	81.64581	81.57538	81.84542	82.03669	81.70715
467	82.50623	82.89067	81.72097	81.63021	81.86987	82.04678	81.70769
468	82.49826	82.89595	81.69316	81.6329	81.87544	82.04768	81.71343
469	82.53704	82.91343	81.7163	81.64348	81.88713	82.09003	81.74125
470	82.5606	82.92563	81.73927	81.67307	81.93497	82.10337	81.77823
471	82.58127	82.93401	81.7565	81.70248	81.94595	82.13277	81.79098
472	82.59777	82.93692	81.78074	81.71145	81.95999	82.14251	81.78631
473	82.5878	82.95058	81.79152	81.71038	81.97529	82.14088	81.80571
474	82.58871	82.95841	81.79026	81.70213	81.97025	82.14052	81.80517
475	82.60449	82.99321	81.78649	81.74502	81.98051	82.16614	81.81595
476	82.61283	82.98939	81.79439	81.76458	81.97745	82.1647	81.81308
477	82.62716	82.99449	81.81667	81.77195	82.00355	82.18942	81.83967
478	82.69741	83.03915	81.86286	81.7908	82.03579	82.23816	81.90313
479	82.67689	83.0222	81.86987	81.80912	82.03939	82.22859	81.89792
480	82.69124	83.06979	81.87742	81.84488	82.05345	82.2425	81.89504
481	82.69305	83.06888	81.89018	81.85926	82.06047	82.25171	81.92076
482	82.71121	83.06031	81.874	81.85027	82.05633	82.25171	81.92094
483	82.71993	83.08512	81.88857	81.8634	82.07075	82.26634	81.93569
484	82.72102	83.09515	81.92634	81.87616	82.06372	82.29145	81.94793
485	82.71031	83.10592	81.93353	81.94469	82.1896	82.33519	81.95513
486	82.63914	83.16105	82.10445	81.97025	82.17895	82.37317	82.02714
487	82.73719	83.18187	82.06967	82.02859	81.99167	82.28097	82.06408
488	82.80299	83.1417	81.91231	81.98753	82.06732	82.26724	81.99923
489	82.78662	83.14024	81.93083	81.9294	82.10301	82.3361	81.98393
490	82.77772	83.13768	81.95783	81.94631	82.11654	82.33248	82.01814
491	82.80971	83.16671	81.96845	81.96197	82.14124	82.35924	82.03147
492	82.83518	83.16817	81.95873	81.97565	82.13529	82.36467	82.03669
493	82.83699	83.19082	81.98483	82.00211	82.14431	82.38602	82.04336
494	82.853	83.20087	81.98663	82.02895	82.15513	82.38945	82.04606
495	82.86392	83.21914	81.99941	82.04606	82.1674	82.41099	82.05381
496	82.85573	83.21165	81.99959	82.03363	82.1757	82.40556	82.05237
497	82.85755	83.23285	82.01256	82.04138	82.17787	82.42709	82.08661
498	82.87393	83.24436	82.02841	82.06786	82.20909	82.44139	82.12267
499	82.91489	83.26192	82.05921	82.0776	82.22715	82.46946	82.14431
500	82.93127	83.28112	82.06372	82.10229	82.22986	82.4767	82.14792
501	82.92563	83.28843	82.07868	82.11383	82.22823	82.4691	82.14142
502	82.92763	83.29008	82.05795	82.11455	82.20711	82.46747	82.12483
503	82.94493	83.30928	82.06029	82.13222	82.23022	82.4921	82.13583
504	82.95951	83.3091	82.09075	82.16253	82.24809	82.50496	82.15315
505	82.95295	83.31788	82.09364	82.16975	82.24665	82.50659	82.15874
506	82.99923	83.34112	82.14702	82.2053	82.30356	82.56024	82.21884
507	82.97955	83.33655	82.14864	82.19844	82.26507	82.5499	82.1896
508	82.99522	83.35485	82.1315	82.23184	82.29199	82.55951	82.2062
509	83.00998	83.36693	82.12411	82.22697	82.30736	82.57565	82.22498
510	83.03295	83.38213	82.15838	82.23672	82.3079	82.58363	82.2378
511	83.02311	83.37077	82.149	82.23292	82.30121	82.59904	82.2508
512	83.04134	83.37315	82.1508	82.25026	82.31386	82.58435	82.26182
513	83.05174	83.39403	82.19158	82.25929	82.33375	82.61936	82.28386
514	83.08348	83.42462	82.19411	82.29109	82.35436	82.63859	82.2938
515	83.10592	83.41765	82.20314	82.30862	82.36395	82.64876	82.30446
516	83.09552	83.42352	82.20169	82.31657	82.3672	82.65293	82.31477
517	83.10501	83.43451	82.22047	82.32814	82.37697	82.6493	82.32616
518	83.12107	83.4488	82.21379	82.3361	82.37625	82.666	82.33646
519	83.13531	83.46254	82.23058	82.34369	82.39108	82.68071	82.3399
520	83.16178	83.47153	82.25243	82.35943	82.39217	82.70213	82.37172
521	83.15758	83.48912	82.26056	82.37932	82.41171	82.69342	82.37408
522	83.15886	83.48821	82.26309	82.38384	82.41678	82.71575	82.36558
523	83.1784	83.48637	82.25658	82.39615	82.42492	82.71412	82.38077
524	83.19265	83.51186	82.27664	82.4137	82.43922	82.72865	82.40357
525	83.20891	83.5335	82.29507	82.44501	82.46022	82.753	82.41225
526	83.22298	83.53772	82.31477	82.45081	82.47073	82.77263	82.42746
527	83.23705	83.55588	82.32851	82.47199	82.48196	82.78408	82.43488
528	83.23047	83.559	82.32742	82.46258	82.48666	82.77481	82.44266
529	83.22755	83.56616	82.33736	82.46529	82.48449	82.79008	82.4499
530	83.23888	83.58304	82.34839	82.48902	82.49083	82.80499	82.449
531	83.24674	83.58745	82.34532	82.49862	82.49174	82.80808	82.45117
532	83.26338	83.60874	82.38041	82.50496	82.51746	82.81735	82.45696
533	83.26246	83.61994	82.39162	82.52761	82.52217	82.81044	82.48159
534	83.26923	83.63262	82.3994	82.53613	82.52725	82.82663	82.49717
535	83.2791	83.64364	82.39	82.5528	82.51728	82.82099	82.49717
536	83.29209	83.67119	82.41479	82.57329	82.53395	82.86156	82.53559
537	83.31587	83.66807	82.41822	82.59378	82.55154	82.86483	82.54737
538	83.30764	83.66109	82.40845	82.60956	82.54048	82.86065	82.5374
539	83.3177	83.67046	82.40936	82.62898	82.5528	82.88521	82.5441
540	83.33014	83.67266	82.43144	82.63769	82.56531	82.89668	82.549
541	83.35375	83.69122	82.45642	82.6415	82.57982	82.91197	82.55679
542	83.38194	83.70298	82.47942	82.64513	82.60666	82.92199	82.56731
543	83.38194	83.71401	82.48268	82.62825	82.60848	82.92344	82.57891
544	83.39879	83.74931	82.50877	82.65311	82.62118	82.94457	82.59614
545	83.39201	83.75281	82.50424	82.68325	82.61791	82.94512	82.61011
546	83.39879	83.76789	82.51221	82.70522	82.62662	82.94202	82.62589
547	83.39604	83.77543	82.50967	82.74137	82.62789	82.95951	82.64858
548	83.40447	83.77286	82.50206	82.74882	82.62245	82.95951	82.64331
549	83.43084	83.78279	82.53196	82.76772	82.64694	83.00233	82.65384
550	83.45265	83.785	82.547	82.75173	82.66872	83.01108	82.66636
551	83.47061	83.7988	82.56259	82.72883	82.69323	83.01472	82.66709
552	83.47666	83.82659	82.56985	82.71357	82.68579	83.01272	82.67453
553	83.47281	83.82954	82.56169	82.743	82.664	83.0016	82.69142
554	83.47409	83.84169	82.57021	82.80771	82.68434	83.01399	82.71503
555	83.47043	83.84629	82.57057	82.84645	82.69342	83.02165	82.72175
556	83.48014	83.83837	82.59197	82.85537	82.71376	83.04937	82.72683
557	83.50563	83.84463	82.61882	82.843	82.72629	83.07308	82.73574
558	83.52892	83.85052	82.63188	82.81353	82.75282	83.07089	82.74773
559	83.54157	83.87852	82.63696	82.80699	82.74791	83.05867	82.75718
560	83.52397	83.89196	82.62426	82.85864	82.73047	83.06359	82.77208
561	83.51993	83.90431	82.64331	82.9178	82.74936	83.08785	82.77572
562	83.55497	83.92347	82.64694	82.96898	82.7579	83.11413	82.78735
563	83.56579	83.91592	82.64694	82.91816	82.77044	83.11888	82.7868
564	83.5746	83.91334	82.67381	82.83845	82.78117	83.10245	82.77735
565	83.60636	83.95149	82.67363	82.8874	82.77935	83.11942	82.81371
566	83.59736	83.96974	82.69923	82.97736	82.80371	83.1448	82.85846
567	83.59938	83.9773	82.74918	83.05976	82.843	83.17676	82.85864
568	83.61719	83.97195	82.75045	83.01837	82.85773	83.18169	82.85428
569	83.64933	83.99298	82.78244	82.95277	82.89031	83.19886	82.86283
570	83.67744	84.01419	82.7579	82.95386	82.83772	83.19521	82.86392
571	83.63004	84.03541	82.78153	83.06286	82.8299	83.17931	82.8732
572	83.61187	84.03412	82.74282	83.10993	82.8108	83.16854	82.81062
573	83.63133	84.02102	82.78808	83.07089	82.86337	83.19228	82.83718
574	83.66733	84.06845	82.75645	82.96497	82.86956	83.21622	82.86574
575	83.626	84.05165	82.72048	82.93783	82.78408	83.13239	82.84827
576	83.65447	84.07417	82.82172	83.12709	82.85646	83.20434	82.90942
577	83.67781	84.08432	82.88776	83.23943	82.97718	83.27764	82.92636
578	83.65962	84.0978	82.73883	83.02001	82.82317	83.21293	82.8319
579	83.65668	84.09577	82.74646	82.94803	82.83663	83.17164	82.91489
580	83.7085	84.11406	82.91197	83.15795	82.89886	83.25277	82.9739
581	83.60452	84.07269	82.8803	83.27581	82.91762	83.22243	82.87848
582	83.7506	84.21145	82.78535	83.13695	82.9218	83.32776	82.9555
583	83.83745	84.20202	82.90688	83.08621	82.93601	83.29556	83.03004
584	83.76311	84.15286	82.95058	83.19393	82.95459	83.29886	83.0594
585	83.69453	84.14583	82.87448	83.2621	82.93437	83.28697	82.97062
586	83.76973	84.16746	82.87247	83.17183	82.98684	83.33032	83.00196
587	83.82549	84.21571	82.97864	83.11012	82.9923	83.35155	83.04608
588	83.84574	84.249	82.95641	83.31331	82.99139	83.36711	83.08658
589	83.80377	84.20202	82.9158	83.38835	83.03222	83.38213	83.05848
590	83.83524	84.1987	82.94166	83.19521	83.05465	83.40209	83.08658
591	83.88202	84.23013	82.98483	83.14516	83.02566	83.37791	83.12764
592	83.88257	84.2355	83.00269	83.32721	83.06414	83.39842	83.13677
593	83.84242	84.22699	82.99085	83.34478	83.09771	83.42535	83.13695
594	83.87483	84.25788	83.01764	83.19027	83.05903	83.43744	83.149
595	83.9408	84.28286	83.02657	83.28624	83.08238	83.43139	83.19667
596	83.89749	84.28101	82.98629	83.47538	83.09406	83.43597	83.14151
597	83.8566	84.23698	83.01892	83.28788	83.08749	83.45008	83.1375
598	83.91407	84.28231	83.06177	83.16982	83.0791	83.43909	83.1932
599	83.93656	84.31674	82.98793	83.40868	83.08931	83.43194	83.1932
600	83.89104	84.28009	83.0273	83.41179	83.12928	83.46419	83.18278
601	83.91002	84.28453	83.05867	83.21878	83.10318	83.48234	83.21055
602	83.9939	84.35193	83.05338	83.41582	83.13202	83.49151	83.21805
603	83.98542	84.33896	83.09515	83.58194	83.22134	83.54286	83.24235
604	83.92384	84.30545	83.11888	83.27855	83.11851	83.52507	83.20727
605	83.98947	84.3723	83.07071	83.35686	83.14279	83.49187	83.22371
606	83.95315	84.35174	83.06742	83.56469	83.18352	83.50178	83.18096
607	83.92366	84.31563	83.13731	83.32557	83.14772	83.52653	83.21293
608	83.99722	84.3862	83.07709	83.34753	83.14407	83.50068	83.2557
609	84.01991	84.38453	83.10081	83.61627	83.21256	83.52176	83.24144
610	83.98136	84.31193	83.16452	83.39934	83.18826	83.58048	83.28624
611	84.03892	84.39491	83.11742	83.35631	83.1932	83.548	83.30032
612	84.08396	84.42624	83.12983	83.63978	83.24436	83.57056	83.29191
613	84.00497	84.35285	83.1921	83.4259	83.22956	83.60581	83.32447
614	84.03024	84.41474	83.11139	83.38176	83.19356	83.55699	83.31898
615	84.07306	84.44033	83.15831	83.65355	83.24948	83.56946	83.28368
616	84.03984	84.39398	83.19868	83.43378	83.23248	83.6328	83.35814
617	84.07085	84.45665	83.13841	83.46804	83.24583	83.60342	83.34258
618	84.12403	84.46592	83.21732	83.70133	83.3005	83.64217	83.32392
619	84.04501	84.3812	83.2005	83.38817	83.23833	83.64125	83.36894
620	84.13512	84.51472	83.17256	83.60342	83.28989	83.65907	83.36217
621	84.12329	84.44126	83.24181	83.69637	83.29611	83.73295	83.31495
622	84.09854	84.38602	83.18205	83.31825	83.20288	83.69251	83.38908
623	84.19518	84.55723	83.12892	83.80266	83.31111	83.64106	83.31038
624	84.12403	84.50896	83.18023	83.54561	83.25625	83.60654	83.32227
625	84.16782	84.53513	83.23468	83.69471	83.26356	83.61958	83.3737
626	84.21608	84.55853	83.40117	83.6306	83.32282	83.6949	83.42004
627	84.05165	84.44478	83.44715	83.52066	83.50086	83.6666	83.47189
628	84.02803	84.40622	83.49096	83.67872	83.56047	83.62802	83.51223
629	84.16228	84.46351	83.39586	83.6688	83.43634	83.63959	83.54194
630	84.21441	84.56521	83.29538	83.59314	83.38341	83.70133	83.42498
631	84.14232	84.53662	83.34972	83.6137	83.39769	83.77415	83.48362
632	84.23291	84.5407	83.32483	83.78114	83.40666	83.82052	83.55937
633	84.30637	84.61462	83.31294	83.62435	83.38762	83.7552	83.50379
634	84.26047	84.59901	83.45137	83.79696	83.47886	83.80046	83.47464
635	84.26806	84.58638	83.31642	83.67854	83.40044	83.84353	83.57093
636	84.30693	84.68767	83.41417	83.79714	83.47812	83.80266	83.53864
637	84.29934	84.62688	83.44532	83.83322	83.50526	83.85089	83.55222
638	84.28749	84.64138	83.36748	83.66274	83.4587	83.81684	83.61535
639	84.32767	84.7072	83.53222	83.95407	83.55754	83.84739	83.5258
640	84.38342	84.66518	83.44587	83.74361	83.55038	83.93987	83.71659
641	84.28564	84.68321	83.46346	83.80082	83.49572	83.77304	83.53075
642	84.35693	84.68712	83.50379	83.91628	83.57056	83.91647	83.61315
643	84.35674	84.68395	83.451	83.71328	83.53075	83.86213	83.68571
644	84.40214	84.78201	83.60911	84.02342	83.64492	83.92439	83.60764
645	84.39195	84.69139	83.46273	83.76605	83.55405	83.92863	83.74049
646	84.41956	84.80734	83.6317	83.98154	83.65925	83.91702	83.63794
647	84.4051	84.72469	83.49811	83.86544	83.59351	83.96753	83.72247
648	84.4331	84.79486	83.6306	83.9091	83.64051	83.91997	83.69214
649	84.42642	84.78853	83.55699	84.01622	83.64566	83.99796	83.69159
650	84.44867	84.76712	83.56671	83.80874	83.59828	83.94116	83.78886
651	84.48391	84.88671	83.69912	84.13678	83.74086	83.99759	83.65208
652	84.43922	84.75409	83.52855	83.83046	83.60764	83.98929	83.82622
653	84.51843	84.90106	83.76403	84.08525	83.74637	83.98855	83.70997
654	84.45164	84.82149	83.48839	83.92937	83.6014	84.0284	83.77838
655	84.57097	84.83024	84.25215	84.23809	84.04667	83.99703	83.74435
656	84.95514	85.08079	83.99058	84.60515	83.95831	84.249	83.70353
657	84.63878	85.22196	83.50031	84.37731	83.37187	84.06088	83.71052
658	84.50859	84.99265	83.66586	84.19888	83.69637	84.06346	83.76991
659	84.52474	84.85596	83.72504	83.93213	83.69232	84.03559	83.89694
660	84.59586	84.98798	83.7392	84.21367	83.82365	84.06734	83.72302
661	84.48967	84.84981	83.66109	83.94264	83.67321	84.0642	83.92734
662	84.60979	84.99097	83.81702	84.16819	83.83635	84.06346	83.76476
663	84.524	84.89435	83.66917	84.02618	83.71934	84.08746	83.89086
664	84.61388	84.98257	83.80543	84.13604	83.82898	84.06789	83.81187
665	84.53866	84.92362	83.70298	84.06512	83.73828	84.09707	83.9021
666	84.63822	85.00758	83.84555	84.16487	83.85273	84.09263	83.83285
667	84.56688	84.94768	83.70243	84.10205	83.75833	84.12311	83.92108
668	84.63525	85.00796	83.91186	84.15988	83.86912	84.10815	83.90136
669	84.58248	84.94675	83.62619	84.11941	83.746	84.08045	83.81426
670	84.67429	85.0651	84.00146	84.20794	83.93176	84.21108	84.07528
671	84.69009	85.04773	83.75263	84.22089	83.86378	84.15193	83.85071
672	84.59493	84.98369	83.88828	84.1353	83.83322	84.13955	84.00072
673	84.72395	85.06398	83.80487	84.23883	83.87778	84.17614	83.90689
674	84.64343	85.02326	83.90541	84.21182	83.88257	84.17503	84.00183
675	84.76973	85.08303	83.81831	84.24919	83.89952	84.21053	83.93545
676	84.61982	85.02644	83.97103	84.22569	83.90431	84.19389	84.07325
677	84.86993	85.1376	83.81095	84.31322	83.95794	84.24253	83.92347
678	84.6031	85.02438	83.98412	84.22902	83.88423	84.22736	84.15359
679	84.89155	85.17014	83.87133	84.35545	84.01161	84.25363	83.9266
680	84.67763	85.06883	83.96495	84.25788	83.89878	84.26436	84.14454
681	84.86546	85.16322	83.92605	84.34878	84.00607	84.28212	84.00128
682	84.73269	85.10919	83.9832	84.3197	83.962	84.29008	84.12459
683	84.90572	85.16603	83.9478	84.35007	83.99925	84.3073	84.05959
684	84.69642	85.12078	84.02858	84.35971	84.01235	84.29471	84.16062
685	84.98742	85.19165	83.92955	84.35674	84.00718	84.32507	84.01751
686	84.62856	85.10732	84.04833	84.36526	83.98431	84.30026	84.20498
687	85.01953	85.23394	83.93232	84.38787	84.0498	84.3247	83.99999
688	84.68991	85.13798	84.04205	84.38528	83.98007	84.32563	84.22643
689	84.94731	85.22252	83.97951	84.40158	84.06512	84.33526	84.0498
690	84.76954	85.17631	84.03541	84.39417	84.02065	84.33544	84.1621
691	84.89901	85.20288	84.00607	84.38361	84.01124	84.33748	84.12625
692	84.76563	85.23207	84.03172	84.41993	84.09208	84.32118	84.10962
693	84.94806	85.17613	84.0046	84.35526	83.9443	84.33896	84.15563
694	84.694	85.25041	84.06494	84.46258	84.14195	84.32841	84.11498
695	85.01766	85.19053	84.01585	84.35452	83.94725	84.34118	84.1353
696	84.65941	85.24105	84.08229	84.45999	84.1353	84.31989	84.14436
697	84.97791	85.22084	84.04131	84.38787	84.00331	84.34544	84.11184
698	84.75632	85.24929	84.06845	84.44459	84.08894	84.32193	84.12699
699	84.83229	85.23937	84.06199	84.44051	84.05054	84.34619	84.1621
700	84.93071	85.27325	84.05257	84.41437	84.07177	84.34155	84.10058
701	84.71427	85.24236	84.10999	84.50302	84.07195	84.35434	84.24031
702	85.03839	85.29929	84.04187	84.38379	84.08063	84.3423	84.02969
703	84.69251	85.23226	84.1305	84.54312	84.07583	84.36397	84.29915
704	85.02774	85.32252	84.06531	84.4077	84.11424	84.36675	84.05165
705	84.78667	85.26202	84.13678	84.54701	84.09947	84.37601	84.29545
706	84.97156	85.31371	84.10833	84.4674	84.13696	84.3888	84.15193
707	84.87795	85.30453	84.13161	84.49542	84.12754	84.39083	84.21978
708	84.94339	85.30547	84.13733	84.55797	84.11424	84.42105	84.27343
709	84.94731	85.37106	84.14084	84.47056	84.18945	84.4166	84.14842
710	84.98854	85.27531	84.18409	84.65439	84.11868	84.47724	84.41011
711	84.98313	85.42338	84.17355	84.46889	84.24179	84.45683	84.13807
712	85.04586	85.29685	84.20128	84.69325	84.13733	84.50135	84.44812
713	84.99284	85.42394	84.2072	84.52919	84.25751	84.4802	84.21035
714	85.06435	85.35625	84.21996	84.66443	84.19981	84.52437	84.40066
715	85.05408	85.40068	84.22828	84.63172	84.23217	84.51769	84.33192
716	85.05557	85.42769	84.21608	84.59103	84.24697	84.53328	84.31544
717	85.11069	85.36056	84.27676	84.75986	84.23106	84.56688	84.46685
718	85.04661	85.47723	84.20961	84.52065	84.2651	84.54089	84.23772
719	85.12807	85.35587	84.31748	84.83844	84.2601	84.57858	84.53402
720	85.09144	85.49694	84.19796	84.52604	84.27565	84.57264	84.26195
721	85.14209	85.39374	84.34118	84.82186	84.29249	84.59381	84.52047
722	85.10695	85.48718	84.25862	84.62744	84.28897	84.5901	84.34341
723	85.15574	85.44289	84.27731	84.71595	84.27898	84.6005	84.42309
724	85.05856	85.47404	84.36212	84.76786	84.34711	84.58991	84.4394
725	85.24255	85.4594	84.17318	84.60775	84.22348	84.60515	84.34637
726	84.94582	85.49957	84.47297	84.85521	84.42123	84.57041	84.493
727	85.33994	85.43763	84.1257	84.5849	84.1669	84.62763	84.35156
728	84.8951	85.53656	84.47538	84.83099	84.43495	84.56577	84.47278
729	85.28	85.45264	84.19703	84.65439	84.20813	84.61611	84.38676
730	85.03036	85.50501	84.38453	84.7727	84.34822	84.57152	84.42865
731	85.05109	85.51947	84.26824	84.6728	84.29878	84.57858	84.36323
732	85.28037	85.42131	84.34637	84.7835	84.25862	84.60143	84.45034
733	84.78741	85.64764	84.25455	84.64212	84.38379	84.56595	84.33063
734	85.51665	85.35906	84.4127	84.92623	84.22126	84.63209	84.52084
735	84.72674	85.70615	84.16635	84.56892	84.37601	84.57691	84.30545
736	85.44983	85.37537	84.49505	84.91728	84.26861	84.61778	84.52548
737	84.88484	85.65009	84.25659	84.6412	84.37156	84.5875	84.36249
738	85.24667	85.47779	84.39232	84.82689	84.30933	84.61406	84.47093
739	85.05239	85.58429	84.40047	84.79784	84.41493	84.594	84.44682
740	85.21261	85.53205	84.28305	84.72227	84.25455	84.64844	84.42012
741	85.05109	85.63354	84.4802	84.8718	84.49987	84.59864	84.51601
742	85.35681	85.48718	84.32304	84.76637	84.21663	84.68935	84.45331
743	84.93836	85.69524	84.40937	84.82261	84.53328	84.60162	84.48967
744	85.42731	85.49487	84.43217	84.8718	84.29082	84.71037	84.51973
745	85.07743	85.67548	84.41178	84.84552	84.50302	84.66034	84.52047
746	85.23974	85.62226	84.37545	84.83062	84.36471	84.72078	84.52177
747	85.35381	85.56568	84.57097	84.99209	84.50377	84.68712	84.60812
748	85.06454	85.72535	84.27232	84.72078	84.34081	84.74776	84.48243
749	85.46728	85.55929	84.66053	85.09798	84.59233	84.69511	84.67652
750	85.19053	85.699	84.35841	84.78909	84.3223	84.8092	84.52789
751	85.33788	85.67379	84.53773	85.02009	84.6215	84.72357	84.65588
752	85.30978	85.65441	84.48039	84.88428	84.36212	84.79672	84.57914
753	85.35419	85.65592	84.52437	84.99172	84.54609	84.74237	84.63841
754	85.17089	85.76037	84.39639	84.83639	84.42142	84.79505	84.5719
755	85.62621	85.55704	84.70051	85.16322	84.60087	84.77196	84.73399
756	85.0046	85.85817	84.34433	84.77363	84.37842	84.83583	84.54349
757	85.60064	85.56982	84.60087	85.14228	84.65365	84.73809	84.72469
758	85.17631	85.77224	84.555	84.86304	84.34193	84.83881	84.58434
759	85.44345	85.70088	84.44496	85.03316	84.62949	84.78238	84.69232
760	85.28337	85.76113	84.60236	84.97996	84.44682	84.85074	84.64491
761	85.50896	85.6578	84.53291	85.1034	84.60719	84.80175	84.70702
762	85.11368	85.87269	84.51657	84.88447	84.41345	84.86397	84.58843
763	85.66551	85.59838	84.52492	85.1679	84.6847	84.79505	84.75595
764	85.11592	85.84328	84.73511	84.95533	84.37712	84.86714	84.60607
765	85.47366	85.73797	84.25437	85.02233	84.69139	84.79374	84.70404
766	85.36618	85.7487	84.89342	85.12433	84.44626	84.8703	84.66852
767	85.38155	85.80558	84.30082	84.96858	84.61964	84.83323	84.69251
768	85.30547	85.78637	84.81441	85.07612	84.48299	84.85875	84.66889
769	85.48999	85.73797	84.29434	85.03689	84.66425	84.82354	84.70999
770	85.26127	85.82292	84.98276	85.13013	84.4509	84.86583	84.65383
771	85.38493	85.84799	84.10335	84.91449	84.67707	84.84049	84.69753
772	85.5283	85.67228	85.06771	85.33432	84.53198	84.8636	84.73064
773	85.20026	85.97495	84.23383	84.83695	84.58935	84.86546	84.65495
774	85.56662	85.68301	84.88372	85.2946	84.60496	84.85242	84.7472
775	85.27119	85.91833	84.36082	84.89976	84.58378	84.86509	84.67577
776	85.536	85.71312	84.90348	85.31034	84.61592	84.85409	84.76135
777	85.1606	85.99648	84.35489	84.80324	84.56001	84.88	84.64138
778	85.75115	85.58015	84.75502	85.41775	84.69586	84.84459	84.81404
779	84.96895	86.11742	84.73436	84.83565	84.4956	84.90647	84.63636
780	85.79861	85.60816	84.41122	85.30097	84.74292	84.85968	84.81888
781	85.09929	86.04276	84.90852	84.99396	84.51286	84.89398	84.65904
782	85.7086	85.68959	84.38361	85.22103	84.72599	84.86732	84.79765
783	85.11312	86.06506	85.00161	85.03559	84.52474	84.924	84.68916
784	85.83178	85.64463	84.17688	85.20755	84.77773	84.8977	84.84217
785	85.09499	86.09946	85.27325	85.21448	84.54089	84.94227	84.71743
786	85.67586	85.7681	84.15415	84.98873	84.72748	84.92362	84.79933
787	85.40293	85.92739	85.05706	85.39524	84.65291	84.92828	84.80063
788	85.48924	85.91569	84.48911	84.96149	84.68228	84.96503	84.7768
789	85.50464	85.9072	84.87851	85.41118	84.70944	84.94712	84.8485
790	85.46128	85.95626	84.62633	84.95197	84.65142	84.99414	84.80436
791	85.69242	85.81293	84.62744	85.52266	84.79858	84.96018	84.90404
792	85.19333	86.14579	85.09704	84.93985	84.57431	84.99918	84.74962
793	85.95362	85.67906	84.20165	85.40049	84.87105	84.98518	84.94321
794	85.16004	86.18553	85.30734	85.17313	84.61369	85.00721	84.78704
795	85.86816	85.75472	84.27324	85.23787	84.82242	85.0115	84.91747
796	85.27794	86.17815	85.20007	85.32102	84.66759	85.0397	84.84254
797	85.9023	85.74324	84.30637	85.15312	84.81106	85.03409	84.93164
798	85.31221	86.16755	85.06435	85.51309	84.75148	85.02214	84.89304
799	85.6768	85.89117	84.79672	84.97156	84.71855	85.06902	84.88745
800	85.68922	85.97476	84.48169	85.59218	84.88484	85.02737	84.96802
